
SYMMETRICAL COMPONENT VOLTAGES BY BUS (for 3-phase buses)

Bus              Mag:   V1 (kV)    p.u.     V2 (kV)   %V2/V1    V0 (kV)    %V0/V1

barrazero           7.966     0.9998  0.0003487   0.004377 1.202E-007 1.509E-006
cabinedemedicao     7.966     0.9998  0.0003514   0.004412 5.667E-007 7.114E-006
101                 7.966     0.9998  0.0003559   0.004468 2.628E-006 3.299E-005
102                 7.966     0.9998  0.0003679   0.004619 8.03E-006 0.0001008
103                 7.966     0.9998  0.0003648   0.004579 7.091E-006 8.902E-005
103a                7.966     0.9998  0.0003604   0.004524 7.598E-006 9.539E-005
104                 7.966     0.9998  0.0003601   0.004521 5.436E-006 6.825E-005
105                 7.965     0.9998  0.0003583   0.004498 5.396E-006 6.774E-005
106                 7.965     0.9998   0.000358   0.004495 5.425E-006 6.811E-005
107                 7.965     0.9998  0.0003575   0.004488 5.365E-006 6.736E-005
108                 7.965     0.9998  0.0003567   0.004477 5.323E-006 6.683E-005
109                 7.965     0.9998  0.0003556   0.004465 5.287E-006 6.637E-005
109a                7.965     0.9998  0.0003569    0.00448 5.589E-006 7.017E-005
110                 7.965     0.9998  0.0003555   0.004463 5.338E-006 6.701E-005
111                 7.965     0.9998  0.0003535   0.004438 5.294E-006 6.646E-005
112                 7.965     0.9998  0.0003525   0.004426 5.478E-006 6.877E-005
113                 7.965     0.9998  0.0003526   0.004426 5.272E-006 6.619E-005
114                 7.965     0.9998  0.0003519   0.004418 5.256E-006 6.599E-005
115                 7.965     0.9997  0.0003586   0.004502 3.929E-006 4.933E-005
116                 7.965     0.9997   0.000356   0.004469 3.794E-006 4.763E-005
117                 7.965     0.9997   0.000354   0.004444 3.696E-006 4.64E-005
118                 7.965     0.9997  0.0003525   0.004426 3.623E-006 4.549E-005
119                 7.965     0.9997  0.0003521   0.004421 4.033E-006 5.064E-005
120                 7.965     0.9997  0.0003601   0.004521 4.056E-006 5.091E-005
121                 7.965     0.9997  0.0003586   0.004502 3.629E-006 4.556E-005
122                 7.965     0.9997  0.0003587   0.004503 3.274E-006 4.11E-005
123                 7.965     0.9997  0.0003588   0.004504 3.069E-006 3.852E-005
124                 7.965     0.9997   0.000359   0.004507 2.735E-006 3.434E-005
125                 7.965     0.9997    0.00036   0.004519 1.918E-006 2.407E-005
126                 7.965     0.9997    0.00036    0.00452 2.017E-006 2.532E-005
127                 7.965     0.9997  0.0003609   0.004531 1.405E-006 1.765E-005
128                 7.965     0.9997  0.0003616    0.00454 1.23E-006 1.545E-005
129                 7.965     0.9997   0.000364    0.00457 1.293E-006 1.624E-005
130                 7.965     0.9997  0.0003621   0.004547 1.217E-006 1.528E-005
131                 7.965     0.9997  0.0003626   0.004552 1.206E-006 1.514E-005
132                 7.965     0.9997  0.0003633   0.004561 1.179E-006 1.48E-005
133                 7.965     0.9997  0.0003639   0.004569 1.212E-006 1.522E-005
134                 7.965     0.9997  0.0003633   0.004561 1.179E-006 1.48E-005
135                 7.965     0.9997  0.0003614   0.004538 1.03E-006 1.294E-005
136                 7.965     0.9997  0.0003611   0.004534 8.429E-007 1.058E-005
137                 7.965     0.9997  0.0003605   0.004526 7.614E-007 9.56E-006
138                 7.965     0.9997  0.0003614   0.004538 6.773E-007 8.504E-006
139                 7.965     0.9996  0.0003613   0.004536 7.108E-007 8.924E-006
140                 7.965     0.9996  0.0003612   0.004536 7.687E-007 9.651E-006
141                 7.965     0.9996  0.0003623   0.004549 7.935E-007 9.963E-006
142                 7.965     0.9996  0.0003633   0.004561 8.337E-007 1.047E-005
142a                7.965     0.9996  0.0003636   0.004565 8.217E-007 1.032E-005
143                 7.965     0.9996  0.0003637   0.004567 8.786E-007 1.103E-005
143a                7.965     0.9996  0.0003638   0.004567 8.305E-007 1.043E-005
143b                7.965     0.9996  0.0003655   0.004589 8.132E-007 1.021E-005
144                 7.965     0.9996  0.0003597   0.004517 8.442E-007 1.06E-005
145                 7.965     0.9996  0.0003597   0.004516 8.34E-007 1.047E-005
146                 7.964     0.9996  0.0003576    0.00449 9.815E-007 1.232E-005
147                 7.964     0.9996  0.0003579   0.004494 7.513E-007 9.434E-006
148                 7.964     0.9996   0.000358   0.004495 7.003E-007 8.793E-006
147a                7.964     0.9996   0.000358   0.004495 6.97E-007 8.752E-006
149                 7.965     0.9997  0.0003608    0.00453 7.449E-007 9.352E-006
150                 7.965     0.9997  0.0003628   0.004555 7.575E-007 9.51E-006
151                 7.965     0.9997  0.0003627   0.004554 7.577E-007 9.514E-006
152                 7.965     0.9997  0.0003627   0.004554 7.634E-007 9.585E-006
153                 7.965     0.9997  0.0003596   0.004515 7.748E-007 9.728E-006
154                 7.965     0.9997  0.0003595   0.004513 7.801E-007 9.795E-006
155                 7.965     0.9997   0.000359   0.004508 8.001E-007 1.005E-005
156                 7.965     0.9996  0.0003591   0.004508 8.821E-007 1.108E-005
157                 7.965     0.9996  0.0003594   0.004513 1.372E-006 1.723E-005
158                 7.965     0.9996  0.0003593   0.004512 1.506E-006 1.891E-005
158a                7.965     0.9996  0.0003594   0.004512 1.59E-006 1.996E-005
103ab              0.1269     0.9993  1.855E-005    0.01461 1.027E-005  0.008095
103abc             0.1269     0.9993  1.855E-005    0.01461 1.027E-005  0.008095
103b               0.1269     0.9994  5.883E-005    0.04635 2.598E-005   0.02047
106b               0.1269     0.9992  1.875E-005    0.01477 1.028E-005  0.008096
107b               0.1269     0.9994  1.425E-005    0.01123 7.773E-006  0.006124
109b               0.1269      0.999  2.892E-005    0.02279 1.542E-005   0.01215
109ab              0.1269     0.9994  5.885E-005    0.04636 2.598E-005   0.02047
109abc             0.1269     0.9992  1.897E-005    0.01495 1.028E-005  0.008096
110b               0.1267     0.9978  2.664E-005    0.02102 1.151E-005  0.009083
112b               0.1269     0.9987  6.999E-005    0.05518 0.0001175   0.09263
113b               0.1269     0.9994  1.428E-005    0.01125 7.773E-006  0.006124
114b               0.1269     0.9995  1.278E-005    0.01007 6.608E-006  0.005205
119b               0.1268     0.9979  1.346E-005    0.01062 1.065E-005    0.0084
120b               0.1269     0.9994  5.887E-005    0.04638 2.598E-005   0.02047
122b               0.1269     0.9991  1.961E-005    0.01545 9.31E-006  0.007337
124b               0.1267     0.9979  1.354E-005    0.01068 1.065E-005    0.0084
126b               0.1269     0.9991  1.951E-005    0.01537 9.311E-006  0.007337
129b                0.127     0.9996   3.8E-005    0.02993 1.324E-005   0.01043
133b               0.1269     0.9992  3.075E-005    0.02423 7.479E-006  0.005893
142ab               0.127     0.9995  4.866E-005    0.03833 1.764E-005   0.01389
143ab              0.1269      0.999  2.205E-005    0.01738 7.047E-006  0.005554
143bc               0.127     0.9995  4.868E-005    0.03835 1.764E-005   0.01389
145b               0.1269     0.9992  1.521E-005    0.01198 7.914E-006  0.006236
146ab              0.1267     0.9976  4.025E-005    0.03176 1.473E-005   0.01163
147ab              0.1269     0.9987  2.778E-005     0.0219 9.402E-006  0.007412
148b               0.1267     0.9976  4.027E-005    0.03178 1.473E-005   0.01163
150b                0.127     0.9995  4.866E-005    0.03833 1.764E-005   0.01389
151b               0.1269      0.999  1.924E-005    0.01516 9.311E-006  0.007338
152b               0.1269      0.999  1.925E-005    0.01517 9.311E-006  0.007338
154b               0.1268     0.9982  3.121E-005    0.02462 1.109E-005   0.00875
156b               0.1269      0.999  1.691E-005    0.01333 7.414E-006  0.005843
158ab              0.1269     0.9988  2.708E-005    0.02135 1.231E-005  0.009703
201                 7.966     0.9998  0.0003614   0.004536 4.097E-006 5.143E-005
202                 7.966     0.9998  0.0003777   0.004742 9.801E-006  0.000123
203                 7.966     0.9998  0.0003791   0.004759 8.147E-006 0.0001023
204                 7.965     0.9998  0.0003803   0.004775 6.33E-006 7.947E-005
204a                7.965     0.9998  0.0003804   0.004776 6.532E-006  8.2E-005
205                 7.965     0.9997  0.0003819   0.004794 4.895E-006 6.145E-005
206                 7.965     0.9997  0.0003832   0.004811 3.63E-006 4.558E-005
207                 7.965     0.9997  0.0003836   0.004816 3.618E-006 4.542E-005
208                 7.965     0.9997   0.000384   0.004821 3.603E-006 4.524E-005
209                 7.965     0.9997  0.0003844   0.004826 3.582E-006 4.497E-005
210                 7.965     0.9997  0.0003851   0.004835 3.557E-006 4.466E-005
211                 7.965     0.9997  0.0003854   0.004839 3.596E-006 4.514E-005
212                 7.965     0.9997    0.00039   0.004896 5.952E-006 7.473E-005
212a                7.965     0.9997   0.000387   0.004859 6.602E-006 8.289E-005
213                 7.965     0.9997  0.0003938   0.004943 4.727E-006 5.935E-005
214                 7.965     0.9997  0.0003973   0.004989 3.586E-006 4.502E-005
215                 7.965     0.9997  0.0004001   0.005023 3.116E-006 3.912E-005
216                 7.965     0.9997  0.0004035   0.005065 2.528E-006 3.175E-005
217                 7.965     0.9997  0.0004076   0.005118 1.222E-006 1.534E-005
218                 7.965     0.9997  0.0004072   0.005112 1.262E-006 1.585E-005
219                 7.965     0.9996  0.0004102    0.00515 5.101E-007 6.405E-006
220                 7.964     0.9996  0.0004121   0.005174 6.755E-007 8.482E-006
221                 7.964     0.9996  0.0004108   0.005158 2.944E-007 3.696E-006
222                 7.964     0.9996  0.0004095   0.005141 9.046E-007 1.136E-005
223                 7.964     0.9996    0.00041   0.005148 3.064E-007 3.847E-006
224                 7.964     0.9996  0.0004096   0.005143 2.702E-007 3.392E-006
225                 7.964     0.9996  0.0004255   0.005343 2.978E-006 3.739E-005
226                 7.964     0.9996  0.0004463   0.005604 7.094E-006 8.907E-005
227                 7.964     0.9996  0.0004498   0.005648 6.701E-006 8.413E-005
228                 7.964     0.9996  0.0004507   0.005659 6.516E-006 8.182E-005
229                 7.964     0.9996  0.0004532    0.00569 7.012E-006 8.804E-005
230                 7.964     0.9996  0.0004555   0.005719 6.506E-006 8.169E-005
231                 7.964     0.9996  0.0004607   0.005784 6.231E-006 7.825E-005
232                 7.964     0.9995  0.0004724   0.005932 7.877E-006 9.89E-005
233                 7.964     0.9995  0.0004834    0.00607 7.504E-006 9.423E-005
234                 7.964     0.9995  0.0004826   0.006061 7.583E-006 9.522E-005
235                 7.964     0.9995  0.0005017   0.006299 9.044E-006 0.0001136
203b               0.1267     0.9973  0.0002093     0.1652 5.708E-005   0.04506
204b               0.1269     0.9989  8.53E-006   0.006723 3.309E-005   0.02608
211b               0.1269     0.9994  1.375E-005    0.01083 1.132E-005  0.008919
212b               0.1269     0.9989  5.314E-005    0.04188 8.824E-005   0.06954
212c               0.1269     0.9989  3.458E-005    0.02726 2.656E-006  0.002094
218b               0.1269     0.9993  1.336E-005    0.01053 7.774E-006  0.006125
219b               0.1265     0.9961  0.0001801     0.1423 3.263E-005   0.02579
222b               0.1268     0.9985  3.742E-005    0.02951 2.09E-005   0.01648
223b               0.1269     0.9992  1.342E-005    0.01057 7.774E-006  0.006125
224b               0.1269     0.9993  1.209E-005   0.009524 6.609E-006  0.005207
226b               0.1269     0.9993  1.232E-005   0.009704 6.609E-006  0.005207
228b               0.1263     0.9941  0.0001283     0.1016 5.602E-005   0.04437
229b               0.1263     0.9941  0.0001283     0.1016 5.602E-005   0.04437
234b               0.1269     0.9992  1.325E-005    0.01044 7.775E-006  0.006126
235b               0.1265      0.996  0.0001804     0.1426 3.263E-005    0.0258
301                 7.966     0.9998  0.0003631   0.004559 2.372E-006 2.978E-005
302                 7.966     0.9998  0.0003703   0.004648 1.877E-006 2.357E-005
303                 7.966     0.9998  0.0003832    0.00481 1.062E-006 1.333E-005
304                 7.966     0.9998  0.0003879    0.00487 6.223E-007 7.812E-006
305                 7.966     0.9998  0.0003968   0.004981 3.826E-007 4.803E-006
306                 7.966     0.9998   0.000402   0.005047 7.87E-007 9.881E-006
307                 7.966     0.9998  0.0004026   0.005054 8.399E-007 1.054E-005
308                 7.965     0.9998  0.0004106   0.005154 1.266E-006 1.59E-005
309                 7.965     0.9997  0.0004173   0.005238  1.6E-006 2.008E-005
310                 7.965     0.9997  0.0004184   0.005253 1.667E-006 2.093E-005
311                 7.965     0.9997  0.0004231   0.005312 1.84E-006 2.31E-005
312                 7.965     0.9997  0.0004244   0.005329 1.86E-006 2.336E-005
313                 7.965     0.9997  0.0004247   0.005332 1.847E-006 2.318E-005
314                 7.965     0.9997  0.0004254   0.005341 1.809E-006 2.271E-005
315                 7.965     0.9997  0.0004268   0.005358 1.989E-006 2.497E-005
316                 7.965     0.9997  0.0004277   0.005369 2.124E-006 2.666E-005
316a                7.965     0.9997  0.0004278   0.005371 2.109E-006 2.648E-005
317                 7.965     0.9997  0.0004295   0.005393 1.412E-006 1.773E-005
318                 7.965     0.9997    0.00043   0.005398 1.374E-006 1.725E-005
319                 7.965     0.9997  0.0004303   0.005402 1.384E-006 1.737E-005
320                 7.965     0.9997  0.0004305   0.005405 1.366E-006 1.715E-005
321                 7.965     0.9997    0.00043   0.005398 2.051E-006 2.575E-005
322                 7.965     0.9997  0.0004341    0.00545 2.127E-006 2.67E-005
323                 7.965     0.9997  0.0004356   0.005469 2.036E-006 2.557E-005
323a                7.965     0.9997  0.0004369   0.005485 1.972E-006 2.476E-005
324                 7.965     0.9997  0.0004363   0.005478 1.968E-006 2.471E-005
325                 7.965     0.9997  0.0004331   0.005437 2.106E-006 2.644E-005
326                 7.965     0.9997  0.0004332   0.005438 2.108E-006 2.646E-005
327                 7.965     0.9997  0.0004343   0.005452 2.14E-006 2.687E-005
328                 7.965     0.9997  0.0004357    0.00547 2.18E-006 2.737E-005
329                 7.965     0.9997  0.0004361   0.005475 2.191E-006 2.751E-005
330                 7.965     0.9997  0.0004367   0.005483 2.129E-006 2.673E-005
331                 7.965     0.9997  0.0004375   0.005493 2.212E-006 2.777E-005
332                 7.965     0.9997  0.0004383   0.005503 2.176E-006 2.732E-005
333                 7.965     0.9997  0.0004158    0.00522 1.737E-006 2.18E-005
334                 7.965     0.9997   0.000416   0.005223 1.758E-006 2.207E-005
335                 7.965     0.9997  0.0004221   0.005299 2.336E-006 2.933E-005
336                 7.965     0.9997  0.0004264   0.005353 2.588E-006 3.249E-005
337                 7.965     0.9997  0.0004264   0.005353 2.588E-006 3.249E-005
338                 7.965     0.9997  0.0004356   0.005469 3.115E-006 3.911E-005
338a                7.965     0.9997  0.0004359   0.005473 3.086E-006 3.875E-005
339                 7.965     0.9997  0.0004382   0.005502 3.261E-006 4.093E-005
340                 7.965     0.9997  0.0004401   0.005525 2.752E-006 3.455E-005
341                 7.965     0.9997  0.0004408   0.005534 3.423E-006 4.297E-005
342                 7.965     0.9997  0.0004418   0.005546 3.403E-006 4.272E-005
342a                7.965     0.9997  0.0004421   0.005551 3.382E-006 4.246E-005
343                 7.965     0.9997  0.0004413    0.00554 3.361E-006 4.22E-005
344                 7.965     0.9997  0.0004417   0.005545 3.313E-006 4.159E-005
345                 7.965     0.9997  0.0004499   0.005648 3.796E-006 4.765E-005
346                 7.965     0.9997  0.0004568   0.005735 4.067E-006 5.105E-005
346a                7.965     0.9997  0.0004598   0.005773 3.913E-006 4.913E-005
347                 7.965     0.9997  0.0004575   0.005744 4.116E-006 5.168E-005
348                 7.965     0.9997  0.0004595   0.005769 4.018E-006 5.044E-005
349                 7.965     0.9997  0.0004604    0.00578 3.972E-006 4.987E-005
349a                7.965     0.9997  0.0004605   0.005782 3.966E-006 4.98E-005
350                 7.965     0.9997  0.0004611   0.005789 4.376E-006 5.494E-005
351                 7.965     0.9997   0.000465   0.005838 4.661E-006 5.852E-005
352                 7.965     0.9997   0.000467   0.005863 4.55E-006 5.712E-005
352a                7.965     0.9997  0.0004693   0.005892 4.433E-006 5.566E-005
353                 7.965     0.9997  0.0004691   0.005889 4.886E-006 6.135E-005
353a                7.965     0.9997  0.0004707    0.00591 4.804E-006 6.031E-005
354                 7.965     0.9997  0.0004716   0.005921 5.116E-006 6.423E-005
355                 7.965     0.9997  0.0004731    0.00594 5.042E-006 6.33E-005
356                 7.965     0.9997  0.0004745   0.005957 4.979E-006 6.252E-005
357                 7.965     0.9997  0.0004751   0.005965 4.953E-006 6.218E-005
358                 7.965     0.9997  0.0004738   0.005948 4.506E-006 5.658E-005
359                 7.965     0.9997  0.0004757   0.005973 4.433E-006 5.566E-005
360                 7.965     0.9997  0.0004775   0.005995 4.37E-006 5.486E-005
361                 7.965     0.9997   0.000479   0.006014 4.32E-006 5.424E-005
304b               0.1269     0.9989  2.714E-005    0.02139 2.641E-005   0.02082
307b                0.127     0.9995  4.634E-005     0.0365 1.951E-005   0.01537
309b               0.1269     0.9989  2.677E-005     0.0211 2.641E-005   0.02082
310b               0.1269     0.9989  2.674E-005    0.02107 2.641E-005   0.02082
312b               0.1269     0.9994  6.008E-005    0.04733 2.598E-005   0.02047
314b               0.1269     0.9994  6.01E-005    0.04735 2.598E-005   0.02047
316b               0.1269     0.9991  1.868E-005    0.01472 1.76E-005   0.01387
320b               0.1269     0.9993  1.486E-005    0.01171 1.332E-005   0.01049
322b               0.1269     0.9992  5.948E-005    0.04687 1.471E-005   0.01159
323b               0.1269     0.9992  5.954E-005    0.04691 1.471E-005   0.01159
323c               0.1269     0.9992  5.954E-005    0.04691 1.471E-005   0.01159
324b               0.1269     0.9993  1.456E-005    0.01147 1.332E-005   0.01049
325b               0.1269     0.9993  4.633E-005     0.0365 1.105E-005  0.008702
329b               0.1269     0.9991  1.846E-005    0.01455 1.76E-005   0.01387
330b               0.1269     0.9993  1.463E-005    0.01152 1.332E-005   0.01049
332b               0.1269     0.9992  5.956E-005    0.04693 1.471E-005   0.01159
334b                0.127     0.9995  4.661E-005    0.03671 1.951E-005   0.01537
347b               0.1269     0.9991  1.861E-005    0.01466 1.76E-005   0.01387
338b               0.1269     0.9995  1.052E-005   0.008289 8.501E-006  0.006697
340b               0.1267     0.9976  2.285E-005    0.01803 1.588E-005   0.01253
342b               0.1269     0.9993  4.643E-005    0.03658 1.105E-005  0.008702
344b               0.1269     0.9988  2.655E-005    0.02093 2.642E-005   0.02082
345b               0.1269     0.9988  2.643E-005    0.02083 2.642E-005   0.02082
346b               0.1269     0.9994  6.071E-005    0.04782 2.598E-005   0.02047
349b               0.1269     0.9994  6.072E-005    0.04783 2.598E-005   0.02047
352b               0.1269     0.9993  4.697E-005    0.03701 1.105E-005  0.008703
353b               0.1269     0.9994  6.087E-005    0.04796 2.598E-005   0.02047
353c               0.1269     0.9994  4.761E-005     0.0375 1.951E-005   0.01537
357b               0.1269     0.9993  6.098E-005    0.04804 2.599E-005   0.02047
361b               0.1269     0.9994  4.774E-005    0.03761 1.951E-005   0.01537
401                 7.966     0.9998  0.0003722   0.004672 3.151E-006 3.956E-005
402                 7.966     0.9998  0.0003919    0.00492 2.444E-006 3.068E-005
403                 7.966     0.9998  0.0004248   0.005333 1.275E-006 1.601E-005
404                 7.966     0.9998  0.0004366   0.005481 6.421E-007 8.06E-006
405                 7.965     0.9998  0.0004582   0.005752 6.757E-007 8.483E-006
406                 7.965     0.9997  0.0004702   0.005903 1.322E-006 1.66E-005
407                 7.965     0.9997  0.0004717   0.005922 1.402E-006 1.76E-005
408                 7.965     0.9997  0.0004899    0.00615 2.049E-006 2.572E-005
409                 7.965     0.9997  0.0005115   0.006422 3.249E-006 4.079E-005
410                 7.965     0.9997  0.0005125   0.006434 3.303E-006 4.147E-005
411                 7.965     0.9997  0.0005401    0.00678 4.837E-006 6.073E-005
412                 7.965     0.9997  0.0005587   0.007014 5.501E-006 6.907E-005
413                 7.965     0.9997  0.0005976   0.007503 6.89E-006 8.651E-005
414                 7.965     0.9996  0.0006087   0.007642 7.285E-006 9.146E-005
415                 7.965     0.9996  0.0006196   0.007779 7.892E-006 9.909E-005
416                 7.964     0.9996  0.0006624   0.008317 9.417E-006 0.0001182
417                 7.964     0.9996  0.0006948   0.008724 1.057E-005 0.0001327
418                 7.964     0.9996  0.0006989   0.008775 1.08E-005 0.0001356
419                 7.964     0.9996  0.0007234   0.009083 1.216E-005 0.0001526
420                 7.964     0.9995  0.0007503   0.009422 1.365E-005 0.0001714
421                 7.964     0.9995  0.0007785   0.009775 1.521E-005  0.000191
422                 7.963     0.9995  0.0008659    0.01087 7.907E-006 9.929E-005
423                 7.963     0.9994  0.0009414    0.01182 1.032E-005 0.0001296
424                 7.963     0.9994  0.0009426    0.01184 1.036E-005 0.0001301
425                 7.963     0.9994   0.000988    0.01241 1.131E-005  0.000142
426                 7.963     0.9994  0.0009905    0.01244 1.117E-005 0.0001403
427                 7.963     0.9994  0.0009922    0.01246 1.108E-005 0.0001392
428                 7.963     0.9994  0.0009945    0.01249 1.096E-005 0.0001376
429                 7.963     0.9994  0.0009984    0.01254 1.076E-005 0.0001351
430                 7.963     0.9994   0.001001    0.01257 1.064E-005 0.0001337
431                 7.963     0.9994   0.001003     0.0126 1.053E-005 0.0001323
432                 7.963     0.9994   0.001006    0.01264 1.042E-005 0.0001309
433                 7.963     0.9994   0.001009    0.01267 1.031E-005 0.0001295
434                 7.963     0.9994   0.001011    0.01269 1.027E-005 0.0001289
435                 7.963     0.9994   0.001012    0.01271 1.022E-005 0.0001284
436                 7.963     0.9994   0.001014    0.01273 1.018E-005 0.0001279
437                 7.963     0.9994   0.001015    0.01275 1.017E-005 0.0001277
438                 7.963     0.9994   0.001016    0.01276 1.016E-005 0.0001276
439                 7.963     0.9994   0.001015    0.01274 1.014E-005 0.0001274
440                 7.963     0.9994   0.001016    0.01275 1.011E-005  0.000127
441                 7.963     0.9994   0.001016    0.01276 1.009E-005 0.0001267
442                 7.962     0.9994    0.00102    0.01281 1.197E-005 0.0001503
443                 7.962     0.9994   0.001021    0.01282 1.193E-005 0.0001498
444                 7.962     0.9994   0.001021    0.01283 1.194E-005 0.0001499
445                 7.962     0.9994   0.001022    0.01283 1.195E-005   0.00015
446                 7.962     0.9994   0.001046    0.01314 1.278E-005 0.0001605
447                 7.962     0.9993   0.001077    0.01352 1.374E-005 0.0001725
448                 7.962     0.9993   0.001114    0.01399 1.489E-005  0.000187
449                 7.962     0.9993   0.001151    0.01445 1.604E-005 0.0002015
449a                7.962     0.9993   0.001151    0.01446 1.595E-005 0.0002004
450                 7.962     0.9993   0.001187    0.01491 1.718E-005 0.0002158
451                 7.961     0.9992   0.001224    0.01537 1.348E-005 0.0001694
452                 7.961     0.9992   0.001252    0.01573 1.156E-005 0.0001452
453                 7.961     0.9992   0.001282    0.01611 1.087E-005 0.0001365
454                 7.961     0.9992   0.001293    0.01624 1.101E-005 0.0001383
455                 7.961     0.9992   0.001295    0.01626 1.109E-005 0.0001392
456                 7.961     0.9992   0.001313    0.01649 1.188E-005 0.0001493
457                 7.961     0.9992   0.001316    0.01653 1.211E-005 0.0001522
458                 7.961     0.9992   0.001322    0.01661 1.245E-005 0.0001564
459                 7.961     0.9992    0.00133    0.01671 1.306E-005  0.000164
460                 7.961     0.9992   0.001335    0.01677 1.342E-005 0.0001685
461                 7.961     0.9992   0.001343    0.01686 1.41E-005 0.0001771
462                 7.961     0.9992   0.001347    0.01692 1.453E-005 0.0001825
463                 7.961     0.9992     0.0012    0.01507 1.766E-005 0.0002219
464                 7.961     0.9992   0.001213    0.01524 1.817E-005 0.0002282
465                 7.961     0.9992    0.00121     0.0152 1.84E-005 0.0002311
466                 7.961     0.9992   0.001267    0.01591 1.289E-005  0.000162
467                 7.961     0.9992   0.001281    0.01609 1.203E-005 0.0001511
468                 7.961     0.9992   0.001294    0.01625 1.158E-005 0.0001454
469                 7.961     0.9992   0.001307    0.01642 1.11E-005 0.0001394
470                 7.961     0.9992   0.001322    0.01661 1.177E-005 0.0001478
471                 7.961     0.9992    0.00133    0.01671 1.161E-005 0.0001459
472                 7.961     0.9992   0.001331    0.01672 1.224E-005 0.0001538
473                 7.961     0.9992    0.00135    0.01695 1.361E-005 0.0001709
474                 7.961     0.9992   0.001363    0.01712 1.487E-005 0.0001868
475                 7.961     0.9992   0.001386    0.01741 1.75E-005 0.0002199
476                 7.961     0.9992   0.001387    0.01742 1.765E-005 0.0002217
477                 7.961     0.9992   0.001387    0.01742 1.769E-005 0.0002223
478                 7.961     0.9992   0.001401     0.0176 1.78E-005 0.0002236
479                 7.961     0.9991   0.001412    0.01774 1.774E-005 0.0002228
480                 7.961     0.9991   0.001427    0.01793 1.807E-005  0.000227
481                 7.961     0.9991   0.001438    0.01807 1.833E-005 0.0002302
482                 7.961     0.9991   0.001446    0.01817 1.827E-005 0.0002295
483                  7.96     0.9991   0.001454    0.01826 1.823E-005  0.000229
484                  7.96     0.9991   0.001466    0.01842 1.855E-005  0.000233
485                  7.96     0.9991   0.001475    0.01853 1.847E-005 0.0002321
486                  7.96     0.9991   0.001485    0.01865 1.841E-005 0.0002313
487                  7.96     0.9991   0.001492    0.01875 1.857E-005 0.0002333
488                  7.96     0.9991   0.001498    0.01882 1.853E-005 0.0002328
489                  7.96     0.9991   0.001502    0.01887 1.862E-005 0.0002339
424b               0.1268     0.9984  6.458E-005    0.05093 1.482E-005   0.01169
433b               0.1267     0.9976  9.875E-005    0.07793 2.47E-005   0.01949
438b               0.1269     0.9988  7.52E-005    0.05927 8.206E-006  0.006468
441b               0.1268     0.9983  6.571E-005    0.05182 1.482E-005   0.01169
445b               0.1269     0.9991  3.198E-005     0.0252 4.776E-006  0.003763
449b               0.1269     0.9989  6.223E-005    0.04905 6.164E-006  0.004858
454b               0.1264     0.9948   0.000219     0.1733 3.618E-005   0.02864
456b               0.1261     0.9932  0.0002861     0.2268 4.778E-005   0.03787
457b               0.1268     0.9984  6.313E-005    0.04978 1.271E-005   0.01003
462b               0.1264     0.9948  0.0002198      0.174 3.618E-005   0.02864
465b               0.1268     0.9987  7.815E-005    0.06161 8.208E-006  0.006471
465c               0.1269     0.9988  6.319E-005    0.04981 6.164E-006  0.004859
465d               0.1267     0.9974  2.092E-005    0.01651 1.064E-005  0.008402
469b               0.1264     0.9948   0.000219     0.1733 3.618E-005   0.02864
471b               0.1264     0.9948  0.0002194     0.1736 3.618E-005   0.02864
477b               0.1269     0.9987  2.583E-005    0.02036 9.318E-006  0.007345
480b               0.1268     0.9981  7.232E-005    0.05704 1.482E-005   0.01169
489b               0.1263     0.9947  0.0002215     0.1753 3.618E-005   0.02863
476eletabc         0.1267     0.9974  2.207E-005    0.01742 1.367E-010 1.079E-007
485eletabc         0.1267     0.9973  2.347E-005    0.01853 1.367E-010 1.079E-007
452eletabc         0.1267     0.9974  1.993E-005    0.01573 1.367E-010 1.079E-007
426eletabc         0.1267     0.9976  1.576E-005    0.01244 1.367E-010 1.079E-007
352eletabc         0.1268     0.9979  7.431E-006   0.005863 1.367E-010 1.079E-007
358eletabc         0.1263     0.9942  7.526E-006   0.005959 3.031E-008  2.4E-005
339eletabc         0.1268     0.9979  6.974E-006   0.005502 1.367E-010 1.079E-007
310eletabc         0.1268      0.998  6.658E-006   0.005253 1.367E-010 1.079E-007
317eletabc         0.1263     0.9943  6.823E-006   0.005403 2.745E-008 2.174E-005
323eletabc         0.1268     0.9979  6.932E-006   0.005469 1.367E-010 1.079E-007
102eletabc         0.1268      0.998  5.855E-006   0.004619 1.367E-010 1.079E-007
116eletabc         0.1268     0.9979  5.665E-006   0.004469 1.367E-010 1.079E-007
139eletabc         0.1267     0.9979  5.749E-006   0.004536 1.367E-010 1.079E-007
132eletabc         0.1268     0.9979  5.781E-006   0.004561 1.367E-010 1.079E-007
157eletabc         0.1267     0.9979  5.719E-006   0.004513 1.367E-010 1.079E-007
213eletabc         0.1268     0.9979  6.266E-006   0.004943 1.367E-010 1.079E-007
211eletabc         0.1268     0.9979  6.133E-006   0.004839 1.367E-010 1.079E-007
227eletabc         0.1263     0.9941  7.146E-006   0.005659 2.876E-008 2.278E-005
233eletabc         0.1263     0.9941  7.679E-006   0.006082 3.093E-008 2.449E-005
